Source: Spectrum Viewer
Chart: Pulse Spectrum
Series: 
Wavelength (nm)	S (a.u.)
600.52	435
600.548	444
600.576	441
600.604	434
600.632	441
600.66	446
600.688	436
600.716	460
600.744	446
600.772	434
600.8	419
600.828	445
600.856	448
600.884	426
600.912	421
600.94	464
600.968	426
600.996	429
601.024	431
601.052	441
601.08	426
601.108	449
601.136	440
601.164	452
601.192	448
601.22	431
601.248	450
601.276	443
601.304	419
601.332	444
601.36	447
601.388	446
601.416	422
601.444	434
601.472	426
601.5	433
601.528	446
601.556	427
601.584	439
601.612	423
601.64	421
601.668	446
601.696	441
601.724	449
601.752	451
601.78	461
601.808	419
601.836	438
601.864	440
601.892	437
601.92	454
601.948	445
601.976	431
602.004	423
602.032	433
602.06	430
602.088	451
602.116	427
602.144	441
602.171	465
602.199	436
602.227	442
602.255	415
602.283	431
602.311	457
602.339	437
602.367	441
602.395	448
602.423	431
602.451	443
602.479	441
602.507	442
602.535	423
602.563	416
602.591	462
602.619	436
602.647	465
602.675	438
602.703	443
602.731	445
602.759	426
602.786	445
602.814	429
602.842	451
602.87	429
602.898	429
602.926	439
602.954	413
602.982	445
603.01	452
603.038	436
603.066	438
603.094	428
603.122	442
603.15	449
603.178	452
603.206	433
603.234	457
603.261	441
603.289	460
603.317	449
603.345	455
603.373	437
603.401	430
603.429	438
603.457	438
603.485	447
603.513	427
603.541	433
603.569	433
603.597	447
603.624	440
603.652	445
603.68	462
603.708	451
603.736	454
603.764	452
603.792	441
603.82	449
603.848	438
603.876	421
603.904	439
603.932	413
603.959	443
603.987	448
604.015	434
604.043	433
604.071	441
604.099	460
604.127	443
604.155	456
604.183	439
604.211	445
604.239	436
604.266	453
604.294	449
604.322	433
604.35	441
604.378	440
604.406	439
604.434	453
604.462	434
604.49	440
604.518	451
604.545	445
604.573	443
604.601	439
604.629	441
604.657	423
604.685	449
604.713	446
604.741	443
604.769	429
604.796	431
604.824	450
604.852	472
604.88	433
604.908	433
604.936	447
604.964	427
604.992	439
605.02	429
605.047	424
605.075	452
605.103	441
605.131	441
605.159	442
605.187	433
605.215	442
605.243	424
605.27	454
605.298	467
605.326	409
605.354	440
605.382	445
605.41	465
605.438	409
605.466	433
605.493	435
605.521	452
605.549	418
605.577	424
605.605	445
605.633	455
605.661	435
605.688	441
605.716	447
605.744	431
605.772	422
605.8	442
605.828	422
605.856	449
605.883	443
605.911	437
605.939	447
605.967	422
605.995	442
606.023	440
606.051	424
606.078	454
606.106	439
606.134	433
606.162	436
606.19	421
606.218	451
606.246	450
606.273	440
606.301	433
606.329	449
606.357	453
606.385	437
606.413	435
606.44	447
606.468	440
606.496	442
606.524	449
606.552	429
606.58	443
606.607	421
606.635	432
606.663	435
606.691	423
606.719	419
606.747	438
606.774	445
606.802	454
606.83	438
606.858	424
606.886	453
606.914	432
606.941	453
606.969	434
606.997	433
607.025	438
607.053	427
607.081	442
607.108	429
607.136	417
607.164	420
607.192	446
607.22	451
607.247	448
607.275	447
607.303	434
607.331	440
607.359	452
607.387	433
607.414	431
607.442	421
607.47	431
607.498	429
607.526	443
607.553	441
607.581	422
607.609	464
607.637	460
607.665	442
607.692	427
607.72	436
607.748	435
607.776	419
607.804	461
607.831	437
607.859	427
607.887	439
607.915	450
607.943	435
607.97	445
607.998	424
608.026	453
608.054	436
608.082	445
608.109	422
608.137	432
608.165	459
608.193	432
608.221	424
608.248	434
608.276	438
608.304	446
608.332	419
608.359	460
608.387	432
608.415	449
608.443	437
608.471	453
608.498	461
608.526	445
608.554	435
608.582	458
608.609	428
608.637	441
608.665	422
608.693	425
608.721	458
608.748	427
608.776	436
608.804	436
608.832	430
608.859	445
608.887	431
608.915	438
608.943	451
608.971	421
608.998	445
609.026	441
609.054	430
609.082	441
609.109	411
609.137	422
609.165	423
609.193	452
609.22	427
609.248	449
609.276	444
609.304	445
609.331	457
609.359	445
609.387	438
609.415	435
609.442	411
609.47	457
609.498	450
609.526	438
609.553	456
609.581	420
609.609	429
609.637	441
609.664	449
609.692	430
609.72	417
609.748	456
609.775	415
609.803	449
609.831	441
609.859	449
609.886	453
609.914	433
609.942	461
609.97	436
609.997	430
610.025	416
610.053	464
610.081	462
610.108	426
610.136	451
610.164	430
610.191	460
610.219	430
610.247	467
610.275	417
610.302	452
610.33	447
610.358	456
610.386	441
610.413	455
610.441	425
610.469	429
610.496	439
610.524	429
610.552	449
610.58	432
610.607	439
610.635	436
610.663	420
610.691	435
610.718	449
610.746	454
610.774	428
610.801	451
610.829	461
610.857	464
610.885	445
610.912	458
610.94	455
610.968	428
610.995	441
611.023	441
611.051	421
611.078	442
611.106	425
611.134	477
611.162	451
611.189	436
611.217	431
611.245	450
611.272	429
611.3	427
611.328	441
611.355	452
611.383	425
611.411	445
611.439	439
611.466	427
611.494	450
611.522	445
611.549	432
611.577	433
611.605	421
611.632	429
611.66	429
611.688	462
611.715	449
611.743	458
611.771	433
611.799	437
611.826	443
611.854	445
611.882	449
611.909	422
611.937	452
611.965	433
611.992	446
612.02	443
612.048	426
612.075	428
612.103	452
612.131	459
612.158	435
612.186	455
612.214	438
612.241	450
612.269	422
612.297	430
612.324	421
612.352	449
612.38	435
612.407	457
612.435	431
612.463	435
612.49	427
612.518	449
612.546	449
612.573	444
612.601	458
612.629	438
612.656	429
612.684	458
612.712	438
612.739	461
612.767	439
612.795	454
612.822	438
612.85	445
612.878	441
612.905	438
612.933	434
612.961	441
612.988	441
613.016	430
613.044	437
613.071	445
613.099	439
613.126	453
613.154	449
613.182	451
613.209	449
613.237	435
613.265	420
613.292	442
613.32	433
613.348	427
613.375	438
613.403	439
613.431	421
613.458	446
613.486	445
613.513	441
613.541	448
613.569	438
613.596	422
613.624	450
613.652	435
613.679	442
613.707	415
613.734	435
613.762	457
613.79	453
613.817	426
613.845	444
613.873	446
613.9	439
613.928	438
613.955	425
613.983	433
614.011	443
614.038	422
614.066	445
614.094	432
614.121	440
614.149	449
614.176	433
614.204	436
614.232	452
614.259	443
614.287	445
614.314	435
614.342	421
614.37	418
614.397	427
614.425	435
614.453	436
614.48	432
614.508	446
614.535	429
614.563	430
614.591	427
614.618	437
614.646	449
614.673	457
614.701	439
614.729	442
614.756	447
614.784	448
614.811	433
614.839	445
614.867	420
614.894	444
614.922	436
614.949	440
614.977	469
615.005	461
615.032	441
615.06	450
615.087	435
615.115	429
615.142	436
615.17	429
615.198	441
615.225	453
615.253	435
615.28	440
615.308	435
615.336	441
615.363	437
615.391	433
615.418	435
615.446	440
615.473	436
615.501	427
615.529	440
615.556	416
615.584	437
615.611	440
615.639	442
615.666	453
615.694	415
615.722	453
615.749	437
615.777	454
615.804	429
615.832	425
615.859	460
615.887	442
615.915	423
615.942	439
615.97	427
615.997	455
616.025	451
616.052	435
616.08	432
616.108	441
616.135	433
616.163	449
616.19	419
616.218	427
616.245	450
616.273	442
616.3	441
616.328	426
616.356	431
616.383	453
616.411	469
616.438	421
616.466	427
616.493	426
616.521	451
616.548	435
616.576	411
616.603	435
616.631	440
616.659	434
616.686	437
616.714	433
616.741	433
616.769	450
616.796	434
616.824	466
616.851	447
616.879	433
616.906	451
616.934	431
616.961	465
616.989	434
617.017	434
617.044	461
617.072	442
617.099	446
617.127	461
617.154	437
617.182	419
617.209	446
617.237	440
617.264	425
617.292	427
617.319	420
617.347	426
617.374	433
617.402	427
617.429	420
617.457	425
617.484	434
617.512	437
617.54	447
617.567	438
617.595	432
617.622	439
617.65	430
617.677	434
617.705	448
617.732	437
617.76	442
617.787	436
617.815	431
617.842	448
617.87	431
617.897	447
617.925	432
617.952	436
617.98	420
618.007	432
618.035	429
618.062	462
618.09	425
618.117	421
618.145	433
618.172	441
618.2	428
618.227	432
618.255	456
618.282	441
618.31	437
618.337	450
618.365	427
618.392	418
618.42	462
618.447	445
618.475	436
618.502	445
618.53	429
618.557	444
618.585	434
618.612	442
618.64	436
618.667	426
618.695	434
618.722	447
618.749	433
618.777	427
618.804	437
618.832	453
618.859	429
618.887	424
618.914	423
618.942	419
618.969	427
618.997	442
619.024	437
619.052	433
619.079	425
619.107	430
619.134	440
619.162	442
619.189	427
619.217	442
619.244	423
619.271	433
619.299	443
619.326	418
619.354	444
619.381	426
619.409	453
619.436	449
619.464	451
619.491	433
619.519	413
619.546	429
619.574	432
619.601	432
619.628	431
619.656	433
619.683	433
619.711	432
619.738	435
619.766	427
619.793	454
619.821	427
619.848	449
619.876	419
619.903	440
619.93	427
619.958	435
619.985	422
620.013	438
620.04	432
620.068	442
620.095	430
620.123	430
620.15	448
620.177	437
620.205	451
620.232	449
620.26	425
620.287	433
620.315	420
620.342	438
620.369	440
620.397	426
620.424	427
620.452	437
620.479	443
620.507	451
620.534	451
620.562	432
620.589	454
620.616	430
620.644	437
620.671	434
620.699	441
620.726	436
620.753	422
620.781	406
620.808	448
620.836	433
620.863	419
620.891	425
620.918	439
620.945	443
620.973	434
621	438
621.028	434
621.055	452
621.083	427
621.11	433
621.137	429
621.165	456
621.192	437
621.22	417
621.247	433
621.274	435
621.302	440
621.329	433
621.357	438
621.384	422
621.411	446
621.439	449
621.466	445
621.494	452
621.521	440
621.548	451
621.576	431
621.603	423
621.631	449
621.658	432
621.685	439
621.713	447
621.74	448
621.768	437
621.795	436
621.822	445
621.85	437
621.877	425
621.905	419
621.932	433
621.959	437
621.987	455
622.014	445
622.041	417
622.069	433
622.096	427
622.124	449
622.151	443
622.178	448
622.206	437
622.233	436
622.261	425
622.288	429
622.315	449
622.343	437
622.37	429
622.397	422
622.425	446
622.452	448
622.48	435
622.507	434
622.534	446
622.562	433
622.589	441
622.616	430
622.644	430
622.671	449
622.698	415
622.726	431
622.753	435
622.781	436
622.808	427
622.835	418
622.863	433
622.89	442
622.917	434
622.945	417
622.972	435
622.999	449
623.027	429
623.054	449
623.082	440
623.109	430
623.136	444
623.164	438
623.191	437
623.218	448
623.246	447
623.273	425
623.3	428
623.328	431
623.355	441
623.382	428
623.41	427
623.437	419
623.464	441
623.492	431
623.519	425
623.546	437
623.574	430
623.601	446
623.628	433
623.656	429
623.683	422
623.71	433
623.738	441
623.765	428
623.792	438
623.82	437
623.847	422
623.874	433
623.902	457
623.929	446
623.956	449
623.984	446
624.011	431
624.038	430
624.066	446
624.093	447
624.12	430
624.148	415
624.175	427
624.202	430
624.23	428
624.257	454
624.284	439
624.312	440
624.339	462
624.366	448
624.394	433
624.421	429
624.448	433
624.476	439
624.503	446
624.53	437
624.558	445
624.585	441
624.612	437
624.639	437
624.667	435
624.694	432
624.721	446
624.749	438
624.776	445
624.803	420
624.831	428
624.858	421
624.885	458
624.912	430
624.94	431
624.967	427
624.994	459
625.022	442
625.049	445
625.076	473
625.104	441
625.131	425
625.158	456
625.185	432
625.213	440
625.24	432
625.267	443
625.295	429
625.322	436
625.349	437
625.376	437
625.404	434
625.431	426
625.458	441
625.486	434
625.513	430
625.54	437
625.567	425
625.595	434
625.622	436
625.649	437
625.677	432
625.704	441
625.731	439
625.758	464
625.786	449
625.813	435
625.84	431
625.868	439
625.895	428
625.922	437
625.949	428
625.977	431
626.004	428
626.031	443
626.058	447
626.086	417
626.113	432
626.14	449
626.167	429
626.195	418
626.222	428
626.249	449
626.277	451
626.304	443
626.331	415
626.358	438
626.386	433
626.413	411
626.44	438
626.467	445
626.495	424
626.522	448
626.549	429
626.576	427
626.604	448
626.631	447
626.658	435
626.685	446
626.713	423
626.74	429
626.767	431
626.794	440
626.822	440
626.849	451
626.876	419
626.903	457
626.931	422
626.958	442
626.985	433
627.012	446
627.039	438
627.067	450
627.094	448
627.121	441
627.148	431
627.176	435
627.203	453
627.23	436
627.257	451
627.285	447
627.312	439
627.339	454
627.366	459
627.394	433
627.421	444
627.448	448
627.475	443
627.502	431
627.53	430
627.557	413
627.584	454
627.611	450
627.639	427
627.666	439
627.693	415
627.72	425
627.747	443
627.775	415
627.802	435
627.829	444
627.856	437
627.883	428
627.911	444
627.938	429
627.965	441
627.992	434
628.02	435
628.047	439
628.074	429
628.101	435
628.128	448
628.156	422
628.183	460
628.21	438
628.237	432
628.264	432
628.292	439
628.319	437
628.346	429
628.373	436
628.4	453
628.428	429
628.455	450
628.482	431
628.509	437
628.536	442
628.564	419
628.591	448
628.618	438
628.645	435
628.672	430
628.699	431
628.727	431
628.754	449
628.781	424
628.808	431
628.835	430
628.863	414
628.89	445
628.917	458
628.944	429
628.971	458
628.999	423
629.026	435
629.053	423
629.08	448
629.107	433
629.134	441
629.162	438
629.189	436
629.216	448
629.243	430
629.27	435
629.297	461
629.325	438
629.352	442
629.379	435
629.406	430
629.433	435
629.46	449
629.488	451
629.515	426
629.542	438
629.569	427
629.596	430
629.623	425
629.651	430
629.678	435
629.705	429
629.732	441
629.759	446
629.786	443
629.814	430
629.841	427
629.868	434
629.895	438
629.922	430
629.949	433
629.976	437
630.004	453
630.031	433
630.058	427
630.085	435
630.112	435
630.139	454
630.166	424
630.194	426
630.221	433
630.248	442
630.275	423
630.302	436
630.329	426
630.356	434
630.384	444
630.411	435
630.438	443
630.465	428
630.492	431
630.519	453
630.546	433
630.574	424
630.601	456
630.628	435
630.655	449
630.682	427
630.709	441
630.736	451
630.763	445
630.791	441
630.818	440
630.845	420
630.872	451
630.899	428
630.926	466
630.953	436
630.98	435
631.008	434
631.035	419
631.062	442
631.089	437
631.116	434
631.143	458
631.17	438
631.197	469
631.225	441
631.252	457
631.279	467
631.306	430
631.333	440
631.36	437
631.387	447
631.414	433
631.441	424
631.469	417
631.496	435
631.523	439
631.55	429
631.577	431
631.604	438
631.631	429
631.658	455
631.685	437
631.712	421
631.74	454
631.767	404
631.794	430
631.821	465
631.848	427
631.875	449
631.902	443
631.929	441
631.956	439
631.983	450
632.011	427
632.038	453
632.065	443
632.092	445
632.119	430
632.146	430
632.173	447
632.2	453
632.227	450
632.254	443
632.281	443
632.308	472
632.336	467
632.363	454
632.39	461
632.417	455
632.444	474
632.471	475
632.498	511
632.525	594
632.552	1343
632.579	1821
632.606	641
632.633	541
632.66	539
632.688	627
632.715	1804
632.742	2163
632.769	726
632.796	501
632.823	463
632.85	451
632.877	451
632.904	443
632.931	458
632.958	460
632.985	442
633.012	434
633.039	441
633.066	439
633.093	459
633.121	449
633.148	439
633.175	443
633.202	438
633.229	458
633.256	445
633.283	459
633.31	452
633.337	426
633.364	435
633.391	449
633.418	446
633.445	444
633.472	432
633.499	443
633.526	427
633.553	415
633.58	434
633.607	430
633.634	470
633.662	450
633.689	446
633.716	441
633.743	427
633.77	433
633.797	437
633.824	427
633.851	446
633.878	456
633.905	434
633.932	427
633.959	432
633.986	425
634.013	432
634.04	429
634.067	417
634.094	436
634.121	445
634.148	423
634.175	435
634.202	429
634.229	441
634.256	436
634.283	429
634.31	409
634.337	437
634.364	442
634.391	443
634.418	429
634.445	427
634.472	431
634.499	431
634.526	427
634.553	459
634.58	445
634.607	438
634.634	426
634.662	431
634.689	448
634.716	435
634.743	421
634.77	445
634.797	437
634.824	435
634.851	430
634.878	446
634.905	443
634.932	452
634.959	417
634.986	422
635.013	449
635.04	414
635.067	419
635.094	431
635.121	429
635.148	443
635.175	449
635.202	449
635.229	437
635.256	448
635.283	438
635.31	428
635.337	462
635.364	438
635.391	439
635.418	446
635.445	426
635.471	438
635.498	422
635.525	429
635.552	449
635.579	427
635.606	427
635.633	431
635.66	462
635.687	445
635.714	438
635.741	439
635.768	423
635.795	432
635.822	427
635.849	436
635.876	427
635.903	446
635.93	424
635.957	441
635.984	436
636.011	454
636.038	424
636.065	443
636.092	427
636.119	421
636.146	445
636.173	446
636.2	436
636.227	439
636.254	453
636.281	438
636.308	436
636.335	423
636.362	438
636.389	437
636.416	427
636.443	434
636.469	450
636.496	453
636.523	431
636.55	433
636.577	423
636.604	450
636.631	436
636.658	440
636.685	422
636.712	435
636.739	426
636.766	432
636.793	440
636.82	425
636.847	435
636.874	435
636.901	433
636.928	456
636.955	441
636.982	436
637.008	436
637.035	441
637.062	407
637.089	445
637.116	438
637.143	436
637.17	410
637.197	451
637.224	432
637.251	426
637.278	450
637.305	433
637.332	409
637.359	430
637.386	435
637.412	434
637.439	424
637.466	449
637.493	426
637.52	431
637.547	444
637.574	453
637.601	427
637.628	465
637.655	451
637.682	446
637.709	420
637.736	437
637.763	415
637.789	447
637.816	427
637.843	457
637.87	445
637.897	427
637.924	427
637.951	441
637.978	438
638.005	441
638.032	435
638.059	444
638.085	470
638.112	424
638.139	407
638.166	433
638.193	431
638.22	429
638.247	453
638.274	452
638.301	457
638.328	437
638.355	472
638.381	459
638.408	451
638.435	452
638.462	436
638.489	437
638.516	464
638.543	478
638.57	448
638.597	431
638.624	449
638.65	421
638.677	465
638.704	434
638.731	431
638.758	443
638.785	430
638.812	457
638.839	439
638.866	450
638.892	430
638.919	436
638.946	424
638.973	431
639	422
639.027	436
639.054	449
639.081	420
639.107	449
639.134	422
639.161	433
639.188	433
639.215	433
639.242	441
639.269	430
639.296	429
639.322	441
639.349	435
639.376	435
639.403	424
639.43	448
639.457	431
639.484	444
639.511	441
639.537	433
639.564	457
639.591	421
639.618	434
639.645	419
639.672	455
639.699	435
639.725	445
639.752	431
639.779	452
639.806	421
639.833	442
639.86	463
639.887	426
639.913	427
639.94	429
639.967	435
639.994	443
640.021	424
640.048	441
640.075	418
640.101	434
640.128	446
640.155	429
640.182	446
640.209	441
640.236	421
640.262	459
640.289	418
640.316	445
640.343	436
640.37	426
640.397	444
640.424	437
640.45	435
640.477	451
640.504	452
640.531	425
640.558	448
640.585	445
640.611	435
640.638	460
640.665	457
640.692	450
640.719	433
640.746	421
640.772	431
640.799	435
640.826	434
640.853	455
640.88	432
640.907	459
640.933	441
640.96	466
640.987	453
641.014	443
641.041	435
641.067	429
641.094	443
641.121	425
641.148	430
641.175	422
641.202	413
641.228	439
641.255	428
641.282	439
641.309	453
641.336	436
641.362	454
641.389	447
641.416	441
641.443	461
641.47	443
641.496	445
641.523	433
641.55	443
641.577	425
641.604	418
641.631	430
641.657	426
641.684	436
641.711	433
641.738	420
641.765	437
641.791	451
641.818	433
641.845	425
641.872	433
641.898	435
641.925	414
641.952	430
641.979	440
642.006	469
642.032	419
642.059	427
642.086	442
642.113	432
642.14	439
642.166	425
642.193	452
642.22	426
642.247	445
642.274	422
642.3	458
642.327	454
642.354	443
642.381	447
642.407	433
642.434	453
642.461	429
642.488	437
642.515	431
642.541	443
642.568	428
642.595	459
642.622	441
642.648	441
642.675	457
642.702	426
642.729	442
642.756	438
642.782	449
